ENLIGHTEN Version,4.1.6
Measurement ID,20241210-124744-463819-WP-02071
Serial Number,WP-02071
Model,WP-785X-F13-R-ILC
Detector,S16011-1106
Label,enlighten-acetonitrile_ctrl_20241210-124744-463819-WP-02071
Declared Match,
Declared Score,0
Scan Averaging,2
Boxcar,0
Technique,Raman
Baseline Correction Algo,
ROI Pixel Start,10
ROI Pixel End,2047
ROI Vertical Pixel Start,0
ROI Vertical Pixel End,63
CCD C4,1.0143461591505254e-12
Slit Width,25
Cropped,True
Interpolated,False
Wavenumber Correction,0
Raman Intensity Corrected,False
Deconvolved,False
Region,
High Gain Mode,False
Laser Power mW,100.0
Electrical Dark Correction,False
Battery %,
Device ID,<DeviceID USB USB:0x24aa:0x1000:0:1>
FW Version,10.0.0.10
FPGA Version,035-001
Prefix,enlighten
Suffix,
Preset,
Session Count,7237
Plugin Name,
Integration Time,3000
Timestamp,2024-12-10 12:47:44.463819
Note,
Temperature,10.010850297268917
CCD C0,799.8416748046875
CCD C1,0.15680807828903198
CCD C2,1.0990047485393006e-05
CCD C3,-9.785007470952678e-09
CCD Offset,0
CCD Gain,1.9
CCD Offset Odd,0
CCD Gain Odd,1.9
Laser Wavelength,785.041
Laser Enable,True
Laser Power %,35.88870037949164
Laser Temperature,-95.6635622537485
Pixel Count,2048

Pixel,Wavelength,Wavenumber,Processed
0,799.84,235.71,NA
1,800.00,238.16,NA
2,800.16,240.61,NA
3,800.31,243.06,NA
4,800.47,245.51,NA
5,800.63,247.96,NA
6,800.78,250.41,NA
7,800.94,252.86,NA
8,801.10,255.30,NA
9,801.25,257.75,NA
10,801.41,260.19,2111.50
11,801.57,262.64,2021.50
12,801.72,265.08,2072.50
13,801.88,267.53,2003.00
14,802.04,269.97,1977.00
15,802.20,272.41,1939.50
16,802.35,274.85,1913.00
17,802.51,277.29,1914.50
18,802.67,279.73,1906.00
19,802.82,282.17,1930.50
20,802.98,284.61,1938.00
21,803.14,287.05,1967.50
22,803.30,289.49,1908.00
23,803.45,291.92,1937.00
24,803.61,294.36,1923.50
25,803.77,296.80,1962.50
26,803.93,299.23,2030.50
27,804.08,301.67,1993.50
28,804.24,304.10,2071.00
29,804.40,306.53,2054.00
30,804.56,308.97,2115.50
31,804.71,311.40,2211.50
32,804.87,313.83,2180.50
33,805.03,316.26,2223.50
34,805.19,318.69,2323.00
35,805.34,321.12,2403.50
36,805.50,323.55,2501.50
37,805.66,325.98,2558.00
38,805.82,328.40,2657.00
39,805.97,330.83,2798.00
40,806.13,333.26,2909.00
41,806.29,335.68,3078.00
42,806.45,338.11,3235.50
43,806.60,340.53,3436.50
44,806.76,342.95,3721.00
45,806.92,345.38,3975.50
46,807.08,347.80,4293.00
47,807.23,350.22,4770.00
48,807.39,352.64,5310.00
49,807.55,355.06,5922.50
50,807.71,357.48,6866.00
51,807.87,359.90,7951.00
52,808.02,362.32,9526.50
53,808.18,364.74,11603.50
54,808.34,367.15,14279.50
55,808.50,369.57,17949.50
56,808.66,371.99,22554.50
57,808.81,374.40,27782.00
58,808.97,376.82,32849.00
59,809.13,379.23,35689.50
60,809.29,381.64,35211.50
61,809.45,384.05,31264.50
62,809.60,386.47,25516.50
63,809.76,388.88,19691.00
64,809.92,391.29,15274.50
65,810.08,393.70,11851.00
66,810.24,396.11,9619.50
67,810.39,398.51,8002.50
68,810.55,400.92,6820.50
69,810.71,403.33,5966.50
70,810.87,405.74,5347.50
71,811.03,408.14,4846.00
72,811.19,410.55,4483.50
73,811.34,412.95,4163.50
74,811.50,415.36,3886.50
75,811.66,417.76,3601.00
76,811.82,420.16,3474.50
77,811.98,422.56,3318.00
78,812.13,424.96,3146.50
79,812.29,427.36,3049.50
80,812.45,429.76,2927.00
81,812.61,432.16,2782.00
82,812.77,434.56,2705.50
83,812.93,436.96,2644.00
84,813.09,439.36,2538.00
85,813.24,441.75,2483.50
86,813.40,444.15,2395.50
87,813.56,446.54,2319.50
88,813.72,448.94,2247.00
89,813.88,451.33,2196.00
90,814.04,453.72,2161.50
91,814.19,456.12,2084.00
92,814.35,458.51,2058.00
93,814.51,460.90,1957.00
94,814.67,463.29,1939.50
95,814.83,465.68,1862.50
96,814.99,468.07,1783.50
97,815.15,470.46,1747.50
98,815.31,472.84,1683.50
99,815.46,475.23,1710.50
100,815.62,477.62,1652.50
101,815.78,480.00,1641.00
102,815.94,482.39,1636.00
103,816.10,484.77,1665.00
104,816.26,487.16,1617.00
105,816.42,489.54,1576.00
106,816.58,491.92,1541.50
107,816.73,494.30,1469.50
108,816.89,496.68,1352.00
109,817.05,499.06,1305.00
110,817.21,501.44,1201.50
111,817.37,503.82,1100.50
112,817.53,506.20,1011.00
113,817.69,508.58,913.50
114,817.85,510.95,835.00
115,818.01,513.33,784.50
116,818.16,515.70,703.00
117,818.32,518.08,636.50
118,818.48,520.45,637.50
119,818.64,522.82,554.00
120,818.80,525.20,513.50
121,818.96,527.57,492.00
122,819.12,529.94,504.50
123,819.28,532.31,480.00
124,819.44,534.68,480.00
125,819.60,537.05,498.50
126,819.75,539.42,478.50
127,819.91,541.78,451.00
128,820.07,544.15,401.00
129,820.23,546.52,361.00
130,820.39,548.88,367.00
131,820.55,551.25,311.50
132,820.71,553.61,292.00
133,820.87,555.97,272.50
134,821.03,558.34,246.50
135,821.19,560.70,237.50
136,821.35,563.06,198.50
137,821.51,565.42,201.50
138,821.67,567.78,173.00
139,821.82,570.14,159.50
140,821.98,572.50,150.50
141,822.14,574.86,145.50
142,822.30,577.21,170.00
143,822.46,579.57,99.00
144,822.62,581.92,108.50
145,822.78,584.28,161.50
146,822.94,586.63,165.00
147,823.10,588.99,162.50
148,823.26,591.34,144.00
149,823.42,593.69,170.00
150,823.58,596.04,181.50
151,823.74,598.39,142.00
152,823.90,600.74,201.00
153,824.06,603.09,186.00
154,824.22,605.44,163.00
155,824.38,607.79,157.00
156,824.53,610.13,158.50
157,824.69,612.48,139.00
158,824.85,614.83,98.50
159,825.01,617.17,67.50
160,825.17,619.52,104.00
161,825.33,621.86,87.50
162,825.49,624.20,51.00
163,825.65,626.54,44.50
164,825.81,628.89,69.00
165,825.97,631.23,33.50
166,826.13,633.57,0.50
167,826.29,635.90,11.50
168,826.45,638.24,23.50
169,826.61,640.58,18.00
170,826.77,642.92,50.00
171,826.93,645.25,1.50
172,827.09,647.59,29.50
173,827.25,649.92,25.50
174,827.41,652.26,53.00
175,827.57,654.59,46.00
176,827.73,656.92,33.50
177,827.89,659.26,50.00
178,828.05,661.59,51.50
179,828.21,663.92,68.50
180,828.37,666.25,58.50
181,828.53,668.58,-1.00
182,828.69,670.90,49.00
183,828.85,673.23,40.50
184,829.01,675.56,30.00
185,829.17,677.88,2.00
186,829.33,680.21,37.00
187,829.49,682.53,28.00
188,829.65,684.86,40.00
189,829.81,687.18,17.50
190,829.97,689.50,66.00
191,830.13,691.83,37.50
192,830.29,694.15,23.50
193,830.45,696.47,24.50
194,830.61,698.79,71.50
195,830.77,701.11,63.50
196,830.93,703.42,64.00
197,831.09,705.74,68.50
198,831.25,708.06,112.00
199,831.41,710.37,100.00
200,831.57,712.69,121.00
201,831.73,715.00,125.50
202,831.89,717.32,180.00
203,832.05,719.63,213.50
204,832.21,721.94,249.50
205,832.37,724.25,240.00
206,832.53,726.56,338.00
207,832.69,728.87,434.50
208,832.85,731.18,522.50
209,833.01,733.49,625.00
210,833.17,735.80,846.50
211,833.33,738.11,1047.00
212,833.49,740.41,1293.50
213,833.65,742.72,1552.50
214,833.81,745.02,1995.50
215,833.97,747.33,2245.50
216,834.13,749.63,2400.00
217,834.29,751.93,2410.00
218,834.45,754.23,2314.50
219,834.61,756.53,2059.00
220,834.77,758.83,1813.50
221,834.93,761.13,1522.00
222,835.09,763.43,1265.50
223,835.25,765.73,1042.00
224,835.41,768.03,936.50
225,835.57,770.32,787.00
226,835.73,772.62,696.00
227,835.89,774.92,628.50
228,836.05,777.21,559.00
229,836.21,779.50,515.50
230,836.37,781.80,523.00
231,836.53,784.09,484.50
232,836.69,786.38,432.50
233,836.85,788.67,463.50
234,837.01,790.96,406.50
235,837.17,793.25,405.00
236,837.34,795.54,421.50
237,837.50,797.82,406.00
238,837.66,800.11,415.50
239,837.82,802.40,352.50
240,837.98,804.68,379.50
241,838.14,806.97,333.00
242,838.30,809.25,349.00
243,838.46,811.53,347.00
244,838.62,813.82,340.50
245,838.78,816.10,342.50
246,838.94,818.38,313.00
247,839.10,820.66,314.00
248,839.26,822.94,277.00
249,839.42,825.22,269.00
250,839.58,827.49,290.50
251,839.74,829.77,288.50
252,839.90,832.05,256.50
253,840.06,834.32,306.00
254,840.22,836.60,267.50
255,840.38,838.87,261.50
256,840.54,841.14,272.00
257,840.71,843.42,255.00
258,840.87,845.69,260.00
259,841.03,847.96,290.00
260,841.19,850.23,252.00
261,841.35,852.50,230.00
262,841.51,854.77,224.00
263,841.67,857.04,214.00
264,841.83,859.30,215.00
265,841.99,861.57,216.50
266,842.15,863.84,203.50
267,842.31,866.10,238.00
268,842.47,868.36,248.00
269,842.63,870.63,276.50
270,842.79,872.89,273.00
271,842.95,875.15,320.00
272,843.12,877.41,348.00
273,843.28,879.67,412.00
274,843.44,881.93,427.00
275,843.60,884.19,500.50
276,843.76,886.45,543.00
277,843.92,888.71,619.50
278,844.08,890.96,710.50
279,844.24,893.22,832.00
280,844.40,895.47,1005.00
281,844.56,897.73,1237.50
282,844.72,899.98,1662.00
283,844.88,902.23,2156.00
284,845.04,904.49,2672.00
285,845.20,906.74,3624.50
286,845.37,908.99,5315.50
287,845.53,911.24,8184.00
288,845.69,913.49,14196.00
289,845.85,915.73,26955.50
290,846.01,917.98,45986.00
291,846.17,920.23,56649.00
292,846.33,922.47,55106.50
293,846.49,924.72,42081.50
294,846.65,926.96,28322.00
295,846.81,929.20,17402.00
296,846.97,931.45,10183.50
297,847.13,933.69,5930.00
298,847.30,935.93,3704.00
299,847.46,938.17,2473.00
300,847.62,940.41,1774.50
301,847.78,942.65,1386.50
302,847.94,944.89,1119.00
303,848.10,947.12,988.50
304,848.26,949.36,835.00
305,848.42,951.60,744.00
306,848.58,953.83,679.00
307,848.74,956.06,599.50
308,848.90,958.30,556.00
309,849.07,960.53,506.00
310,849.23,962.76,456.50
311,849.39,964.99,461.50
312,849.55,967.22,428.50
313,849.71,969.45,398.50
314,849.87,971.68,403.50
315,850.03,973.91,376.00
316,850.19,976.14,370.50
317,850.35,978.36,364.50
318,850.51,980.59,354.00
319,850.67,982.81,342.50
320,850.84,985.04,348.00
321,851.00,987.26,320.50
322,851.16,989.48,307.00
323,851.32,991.70,314.00
324,851.48,993.92,340.00
325,851.64,996.15,383.00
326,851.80,998.36,342.00
327,851.96,1000.58,359.00
328,852.12,1002.80,361.00
329,852.28,1005.02,402.50
330,852.45,1007.23,405.50
331,852.61,1009.45,428.00
332,852.77,1011.66,430.50
333,852.93,1013.88,475.50
334,853.09,1016.09,491.00
335,853.25,1018.30,520.50
336,853.41,1020.51,549.50
337,853.57,1022.72,645.00
338,853.73,1024.93,659.00
339,853.89,1027.14,724.00
340,854.06,1029.35,747.50
341,854.22,1031.56,860.00
342,854.38,1033.77,969.00
343,854.54,1035.97,1014.50
344,854.70,1038.18,1057.00
345,854.86,1040.38,1109.50
346,855.02,1042.59,1115.50
347,855.18,1044.79,1096.00
348,855.34,1046.99,1030.00
349,855.51,1049.19,994.00
350,855.67,1051.39,935.00
351,855.83,1053.59,857.50
352,855.99,1055.79,762.50
353,856.15,1057.99,774.00
354,856.31,1060.19,716.50
355,856.47,1062.38,661.50
356,856.63,1064.58,609.00
357,856.79,1066.77,572.50
358,856.96,1068.97,585.50
359,857.12,1071.16,533.50
360,857.28,1073.35,540.50
361,857.44,1075.54,464.50
362,857.60,1077.74,438.50
363,857.76,1079.93,461.50
364,857.92,1082.11,427.00
365,858.08,1084.30,388.50
366,858.24,1086.49,412.50
367,858.41,1088.68,395.50
368,858.57,1090.86,349.50
369,858.73,1093.05,322.50
370,858.89,1095.23,337.50
371,859.05,1097.42,307.00
372,859.21,1099.60,302.50
373,859.37,1101.78,298.00
374,859.53,1103.96,261.00
375,859.69,1106.15,273.00
376,859.86,1108.33,266.00
377,860.02,1110.50,200.50
378,860.18,1112.68,244.50
379,860.34,1114.86,210.50
380,860.50,1117.04,213.50
381,860.66,1119.21,236.50
382,860.82,1121.39,195.50
383,860.98,1123.56,193.00
384,861.14,1125.74,228.50
385,861.31,1127.91,189.00
386,861.47,1130.08,143.50
387,861.63,1132.25,179.00
388,861.79,1134.42,171.50
389,861.95,1136.59,136.00
390,862.11,1138.76,176.00
391,862.27,1140.93,136.00
392,862.43,1143.09,167.00
393,862.59,1145.26,147.00
394,862.76,1147.43,162.50
395,862.92,1149.59,157.00
396,863.08,1151.76,149.50
397,863.24,1153.92,163.00
398,863.40,1156.08,162.50
399,863.56,1158.24,148.00
400,863.72,1160.40,106.00
401,863.88,1162.56,132.00
402,864.05,1164.72,138.00
403,864.21,1166.88,122.50
404,864.37,1169.04,134.00
405,864.53,1171.19,128.50
406,864.69,1173.35,144.50
407,864.85,1175.51,141.00
408,865.01,1177.66,145.00
409,865.17,1179.81,133.00
410,865.33,1181.97,172.50
411,865.50,1184.12,142.50
412,865.66,1186.27,124.00
413,865.82,1188.42,156.50
414,865.98,1190.57,170.50
415,866.14,1192.72,131.50
416,866.30,1194.87,168.00
417,866.46,1197.01,175.00
418,866.62,1199.16,141.50
419,866.79,1201.30,171.00
420,866.95,1203.45,161.50
421,867.11,1205.59,182.50
422,867.27,1207.74,175.50
423,867.43,1209.88,167.00
424,867.59,1212.02,157.50
425,867.75,1214.16,217.50
426,867.91,1216.30,186.50
427,868.07,1218.44,167.50
428,868.24,1220.58,203.50
429,868.40,1222.71,206.50
430,868.56,1224.85,172.00
431,868.72,1226.99,221.00
432,868.88,1229.12,188.00
433,869.04,1231.26,232.00
434,869.20,1233.39,225.00
435,869.36,1235.52,219.00
436,869.52,1237.65,250.00
437,869.69,1239.78,255.50
438,869.85,1241.91,270.50
439,870.01,1244.04,243.00
440,870.17,1246.17,256.00
441,870.33,1248.30,229.00
442,870.49,1250.43,284.00
443,870.65,1252.55,287.50
444,870.81,1254.68,333.50
445,870.98,1256.80,313.50
446,871.14,1258.93,337.50
447,871.30,1261.05,364.50
448,871.46,1263.17,403.50
449,871.62,1265.29,414.50
450,871.78,1267.41,429.00
451,871.94,1269.53,484.00
452,872.10,1271.65,501.00
453,872.26,1273.77,501.50
454,872.43,1275.89,560.00
455,872.59,1278.00,549.00
456,872.75,1280.12,603.50
457,872.91,1282.23,622.50
458,873.07,1284.35,630.50
459,873.23,1286.46,682.50
460,873.39,1288.57,763.50
461,873.55,1290.69,788.00
462,873.71,1292.80,817.50
463,873.88,1294.91,852.50
464,874.04,1297.02,900.50
465,874.20,1299.12,963.50
466,874.36,1301.23,1013.50
467,874.52,1303.34,1070.00
468,874.68,1305.44,1087.00
469,874.84,1307.55,1156.00
470,875.00,1309.65,1252.50
471,875.16,1311.76,1282.50
472,875.32,1313.86,1391.00
473,875.49,1315.96,1440.50
474,875.65,1318.06,1532.00
475,875.81,1320.16,1575.50
476,875.97,1322.26,1700.50
477,876.13,1324.36,1744.50
478,876.29,1326.46,1870.00
479,876.45,1328.55,1971.50
480,876.61,1330.65,2054.50
481,876.77,1332.75,2214.50
482,876.94,1334.84,2341.50
483,877.10,1336.93,2476.00
484,877.26,1339.03,2600.50
485,877.42,1341.12,2691.00
486,877.58,1343.21,2874.50
487,877.74,1345.30,3015.50
488,877.90,1347.39,3259.00
489,878.06,1349.48,3471.50
490,878.22,1351.57,3812.00
491,878.38,1353.65,4113.00
492,878.55,1355.74,4561.50
493,878.71,1357.83,5074.00
494,878.87,1359.91,5862.00
495,879.03,1361.99,6830.00
496,879.19,1364.08,8128.00
497,879.35,1366.16,9981.00
498,879.51,1368.24,12574.00
499,879.67,1370.32,15747.50
500,879.83,1372.40,19355.50
501,879.99,1374.48,21978.00
502,880.16,1376.56,22503.00
503,880.32,1378.64,20705.00
504,880.48,1380.71,17754.50
505,880.64,1382.79,14975.50
506,880.80,1384.86,12766.00
507,880.96,1386.94,11201.50
508,881.12,1389.01,10012.50
509,881.28,1391.08,9278.50
510,881.44,1393.15,8731.50
511,881.60,1395.23,8431.00
512,881.76,1397.30,8341.50
513,881.93,1399.36,8261.00
514,882.09,1401.43,8276.00
515,882.25,1403.50,8346.00
516,882.41,1405.57,8465.00
517,882.57,1407.63,8576.00
518,882.73,1409.70,8617.50
519,882.89,1411.76,8597.50
520,883.05,1413.83,8682.00
521,883.21,1415.89,8695.50
522,883.37,1417.95,8661.00
523,883.53,1420.01,8635.50
524,883.70,1422.07,8632.00
525,883.86,1424.13,8567.00
526,884.02,1426.19,8570.50
527,884.18,1428.25,8601.00
528,884.34,1430.30,8646.50
529,884.50,1432.36,8737.00
530,884.66,1434.41,8935.50
531,884.82,1436.47,9145.50
532,884.98,1438.52,9384.50
533,885.14,1440.58,9656.50
534,885.30,1442.63,9739.50
535,885.46,1444.68,9927.00
536,885.63,1446.73,10052.50
537,885.79,1448.78,10012.00
538,885.95,1450.83,9879.00
539,886.11,1452.87,9626.50
540,886.27,1454.92,9282.50
541,886.43,1456.97,8968.50
542,886.59,1459.01,8403.50
543,886.75,1461.06,8049.50
544,886.91,1463.10,7557.00
545,887.07,1465.14,7147.50
546,887.23,1467.19,6765.00
547,887.39,1469.23,6364.00
548,887.55,1471.27,6057.50
549,887.71,1473.31,5747.00
550,887.88,1475.35,5453.00
551,888.04,1477.39,5163.50
552,888.20,1479.42,4954.00
553,888.36,1481.46,4828.50
554,888.52,1483.49,4585.00
555,888.68,1485.53,4459.00
556,888.84,1487.56,4311.50
557,889.00,1489.60,4118.50
558,889.16,1491.63,4018.50
559,889.32,1493.66,3913.50
560,889.48,1495.69,3776.50
561,889.64,1497.72,3781.50
562,889.80,1499.75,3674.00
563,889.96,1501.78,3579.00
564,890.12,1503.80,3512.50
565,890.29,1505.83,3430.00
566,890.45,1507.86,3333.50
567,890.61,1509.88,3273.00
568,890.77,1511.91,3220.50
569,890.93,1513.93,3175.00
570,891.09,1515.95,3123.50
571,891.25,1517.97,3018.50
572,891.41,1519.99,3012.50
573,891.57,1522.01,2905.50
574,891.73,1524.03,2862.50
575,891.89,1526.05,2830.50
576,892.05,1528.07,2759.50
577,892.21,1530.08,2652.50
578,892.37,1532.10,2626.50
579,892.53,1534.12,2543.50
580,892.69,1536.13,2497.00
581,892.85,1538.14,2470.50
582,893.01,1540.15,2362.50
583,893.17,1542.17,2325.00
584,893.33,1544.18,2280.50
585,893.50,1546.19,2229.00
586,893.66,1548.20,2202.00
587,893.82,1550.20,2152.00
588,893.98,1552.21,2086.00
589,894.14,1554.22,1994.50
590,894.30,1556.23,1973.00
591,894.46,1558.23,1870.50
592,894.62,1560.23,1815.00
593,894.78,1562.24,1724.00
594,894.94,1564.24,1675.00
595,895.10,1566.24,1640.00
596,895.26,1568.24,1546.00
597,895.42,1570.24,1503.50
598,895.58,1572.24,1419.50
599,895.74,1574.24,1358.50
600,895.90,1576.24,1328.50
601,896.06,1578.24,1288.50
602,896.22,1580.23,1268.50
603,896.38,1582.23,1154.50
604,896.54,1584.22,1117.50
605,896.70,1586.21,1110.50
606,896.86,1588.21,1077.00
607,897.02,1590.20,1006.50
608,897.18,1592.19,961.00
609,897.34,1594.18,947.00
610,897.50,1596.17,907.50
611,897.66,1598.16,864.50
612,897.82,1600.15,829.50
613,897.98,1602.13,794.50
614,898.14,1604.12,720.50
615,898.30,1606.10,706.50
616,898.46,1608.09,695.00
617,898.62,1610.07,656.50
618,898.78,1612.05,619.50
619,898.94,1614.04,586.00
620,899.11,1616.02,553.50
621,899.27,1618.00,537.00
622,899.43,1619.98,515.50
623,899.59,1621.96,487.50
624,899.75,1623.93,464.00
625,899.91,1625.91,438.00
626,900.07,1627.89,439.00
627,900.23,1629.86,414.50
628,900.39,1631.84,355.50
629,900.55,1633.81,387.50
630,900.71,1635.78,378.00
631,900.87,1637.76,331.00
632,901.03,1639.73,328.00
633,901.19,1641.70,309.50
634,901.35,1643.67,296.50
635,901.51,1645.64,401.00
636,901.67,1647.60,319.00
637,901.83,1649.57,275.00
638,901.99,1651.54,236.00
639,902.15,1653.50,252.00
640,902.31,1655.47,251.50
641,902.47,1657.43,232.00
642,902.63,1659.39,209.50
643,902.79,1661.36,221.00
644,902.95,1663.32,179.50
645,903.10,1665.28,218.00
646,903.26,1667.24,200.00
647,903.42,1669.20,172.00
648,903.58,1671.15,183.50
649,903.74,1673.11,174.50
650,903.90,1675.07,184.50
651,904.06,1677.02,156.00
652,904.22,1678.98,182.00
653,904.38,1680.93,166.00
654,904.54,1682.88,178.00
655,904.70,1684.84,143.00
656,904.86,1686.79,152.00
657,905.02,1688.74,155.50
658,905.18,1690.69,141.50
659,905.34,1692.64,151.00
660,905.50,1694.59,121.50
661,905.66,1696.53,106.00
662,905.82,1698.48,131.00
663,905.98,1700.42,91.50
664,906.14,1702.37,144.00
665,906.30,1704.31,113.50
666,906.46,1706.26,97.50
667,906.62,1708.20,111.00
668,906.78,1710.14,99.50
669,906.94,1712.08,95.50
670,907.10,1714.02,143.00
671,907.26,1715.96,148.50
672,907.42,1717.90,88.50
673,907.58,1719.83,96.50
674,907.74,1721.77,88.00
675,907.90,1723.71,68.00
676,908.06,1725.64,79.00
677,908.21,1727.58,95.00
678,908.37,1729.51,113.50
679,908.53,1731.44,84.00
680,908.69,1733.37,125.50
681,908.85,1735.30,88.50
682,909.01,1737.23,105.50
683,909.17,1739.16,121.00
684,909.33,1741.09,106.50
685,909.49,1743.02,121.50
686,909.65,1744.94,120.50
687,909.81,1746.87,118.00
688,909.97,1748.80,118.00
689,910.13,1750.72,114.00
690,910.29,1752.64,143.50
691,910.45,1754.57,132.00
692,910.61,1756.49,112.50
693,910.77,1758.41,133.00
694,910.92,1760.33,132.50
695,911.08,1762.25,172.00
696,911.24,1764.16,115.00
697,911.40,1766.08,158.00
698,911.56,1768.00,132.50
699,911.72,1769.91,104.50
700,911.88,1771.83,144.00
701,912.04,1773.74,149.00
702,912.20,1775.66,151.50
703,912.36,1777.57,150.50
704,912.52,1779.48,147.00
705,912.68,1781.39,172.50
706,912.83,1783.30,167.00
707,912.99,1785.21,153.00
708,913.15,1787.12,158.50
709,913.31,1789.03,183.00
710,913.47,1790.93,170.00
711,913.63,1792.84,188.50
712,913.79,1794.75,166.00
713,913.95,1796.65,177.00
714,914.11,1798.55,160.50
715,914.27,1800.46,189.50
716,914.43,1802.36,200.00
717,914.58,1804.26,179.50
718,914.74,1806.16,197.00
719,914.90,1808.06,194.00
720,915.06,1809.96,185.50
721,915.22,1811.85,221.00
722,915.38,1813.75,198.00
723,915.54,1815.65,196.00
724,915.70,1817.54,262.00
725,915.86,1819.44,257.00
726,916.01,1821.33,322.50
727,916.17,1823.22,380.00
728,916.33,1825.11,455.50
729,916.49,1827.01,448.00
730,916.65,1828.90,519.50
731,916.81,1830.78,415.00
732,916.97,1832.67,395.50
733,917.13,1834.56,324.50
734,917.28,1836.45,312.50
735,917.44,1838.33,303.00
736,917.60,1840.22,294.50
737,917.76,1842.10,257.00
738,917.92,1843.99,224.50
739,918.08,1845.87,211.50
740,918.24,1847.75,199.50
741,918.40,1849.63,166.00
742,918.55,1851.51,158.50
743,918.71,1853.39,178.00
744,918.87,1855.27,166.50
745,919.03,1857.15,157.00
746,919.19,1859.03,140.00
747,919.35,1860.90,127.50
748,919.51,1862.78,123.00
749,919.66,1864.65,101.50
750,919.82,1866.53,122.50
751,919.98,1868.40,117.00
752,920.14,1870.27,101.50
753,920.30,1872.14,98.00
754,920.46,1874.01,121.00
755,920.61,1875.88,109.00
756,920.77,1877.75,103.00
757,920.93,1879.62,99.00
758,921.09,1881.49,114.00
759,921.25,1883.35,87.00
760,921.41,1885.22,105.50
761,921.57,1887.08,89.00
762,921.72,1888.95,93.50
763,921.88,1890.81,82.00
764,922.04,1892.67,100.50
765,922.20,1894.53,85.00
766,922.36,1896.39,115.50
767,922.51,1898.25,101.00
768,922.67,1900.11,99.00
769,922.83,1901.97,86.00
770,922.99,1903.83,61.50
771,923.15,1905.68,60.00
772,923.31,1907.54,89.00
773,923.46,1909.39,63.00
774,923.62,1911.25,87.50
775,923.78,1913.10,66.50
776,923.94,1914.95,74.50
777,924.10,1916.80,64.50
778,924.25,1918.65,66.50
779,924.41,1920.50,89.50
780,924.57,1922.35,62.50
781,924.73,1924.20,53.50
782,924.89,1926.05,66.00
783,925.04,1927.89,67.50
784,925.20,1929.74,65.50
785,925.36,1931.59,37.00
786,925.52,1933.43,40.00
787,925.68,1935.27,52.50
788,925.83,1937.11,68.00
789,925.99,1938.96,28.50
790,926.15,1940.80,33.00
791,926.31,1942.64,68.50
792,926.47,1944.48,67.50
793,926.62,1946.31,66.50
794,926.78,1948.15,39.00
795,926.94,1949.99,54.00
796,927.10,1951.82,70.00
797,927.25,1953.66,66.50
798,927.41,1955.49,59.00
799,927.57,1957.33,23.00
800,927.73,1959.16,66.00
801,927.88,1960.99,39.00
802,928.04,1962.82,34.50
803,928.20,1964.65,40.50
804,928.36,1966.48,62.50
805,928.52,1968.31,40.50
806,928.67,1970.14,31.50
807,928.83,1971.96,63.00
808,928.99,1973.79,45.50
809,929.15,1975.61,53.50
810,929.30,1977.44,43.50
811,929.46,1979.26,16.50
812,929.62,1981.08,39.50
813,929.78,1982.91,62.50
814,929.93,1984.73,16.00
815,930.09,1986.55,53.00
816,930.25,1988.37,27.00
817,930.41,1990.19,27.50
818,930.56,1992.00,37.00
819,930.72,1993.82,59.50
820,930.88,1995.64,34.00
821,931.03,1997.45,34.00
822,931.19,1999.27,31.50
823,931.35,2001.08,57.00
824,931.51,2002.89,24.50
825,931.66,2004.70,47.50
826,931.82,2006.51,40.00
827,931.98,2008.33,64.00
828,932.14,2010.13,27.00
829,932.29,2011.94,49.00
830,932.45,2013.75,39.00
831,932.61,2015.56,36.00
832,932.76,2017.36,52.00
833,932.92,2019.17,61.00
834,933.08,2020.97,67.00
835,933.24,2022.78,53.00
836,933.39,2024.58,65.50
837,933.55,2026.38,78.50
838,933.71,2028.18,76.50
839,933.86,2029.98,43.50
840,934.02,2031.78,52.50
841,934.18,2033.58,71.50
842,934.33,2035.38,75.00
843,934.49,2037.18,61.00
844,934.65,2038.97,83.50
845,934.81,2040.77,58.50
846,934.96,2042.56,71.00
847,935.12,2044.36,53.50
848,935.28,2046.15,45.00
849,935.43,2047.94,93.50
850,935.59,2049.74,83.00
851,935.75,2051.53,60.50
852,935.90,2053.32,89.00
853,936.06,2055.11,74.00
854,936.22,2056.89,110.00
855,936.37,2058.68,80.00
856,936.53,2060.47,94.50
857,936.69,2062.25,113.00
858,936.84,2064.04,134.00
859,937.00,2065.82,110.50
860,937.16,2067.61,124.50
861,937.31,2069.39,128.00
862,937.47,2071.17,132.00
863,937.63,2072.95,129.50
864,937.78,2074.73,163.00
865,937.94,2076.51,164.00
866,938.10,2078.29,118.50
867,938.25,2080.06,115.00
868,938.41,2081.84,112.50
869,938.56,2083.62,110.00
870,938.72,2085.39,136.00
871,938.88,2087.17,140.50
872,939.03,2088.94,143.50
873,939.19,2090.71,101.00
874,939.35,2092.48,121.00
875,939.50,2094.26,109.00
876,939.66,2096.03,135.50
877,939.81,2097.80,103.50
878,939.97,2099.56,116.50
879,940.13,2101.33,114.50
880,940.28,2103.10,96.00
881,940.44,2104.86,128.00
882,940.60,2106.63,126.00
883,940.75,2108.39,111.00
884,940.91,2110.16,137.50
885,941.06,2111.92,123.00
886,941.22,2113.68,150.50
887,941.38,2115.44,112.00
888,941.53,2117.20,111.50
889,941.69,2118.96,145.50
890,941.84,2120.72,121.00
891,942.00,2122.48,129.50
892,942.16,2124.24,133.50
893,942.31,2125.99,145.50
894,942.47,2127.75,188.00
895,942.62,2129.50,163.00
896,942.78,2131.26,150.50
897,942.94,2133.01,185.50
898,943.09,2134.76,188.00
899,943.25,2136.52,161.00
900,943.40,2138.27,159.00
901,943.56,2140.02,189.00
902,943.71,2141.76,201.50
903,943.87,2143.51,172.50
904,944.03,2145.26,229.50
905,944.18,2147.01,183.00
906,944.34,2148.75,220.00
907,944.49,2150.50,225.00
908,944.65,2152.24,236.50
909,944.80,2153.98,229.50
910,944.96,2155.73,253.00
911,945.12,2157.47,291.00
912,945.27,2159.21,281.00
913,945.43,2160.95,291.50
914,945.58,2162.69,328.50
915,945.74,2164.43,342.00
916,945.89,2166.16,344.00
917,946.05,2167.90,320.50
918,946.20,2169.64,373.50
919,946.36,2171.37,338.50
920,946.51,2173.11,421.50
921,946.67,2174.84,404.00
922,946.82,2176.57,425.50
923,946.98,2178.31,453.00
924,947.14,2180.04,495.50
925,947.29,2181.77,520.50
926,947.45,2183.50,530.50
927,947.60,2185.23,582.50
928,947.76,2186.95,648.00
929,947.91,2188.68,693.50
930,948.07,2190.41,773.50
931,948.22,2192.13,817.50
932,948.38,2193.86,915.50
933,948.53,2195.58,1039.50
934,948.69,2197.30,1217.00
935,948.84,2199.03,1463.00
936,949.00,2200.75,1765.50
937,949.15,2202.47,2136.00
938,949.31,2204.19,2423.50
939,949.46,2205.91,2457.00
940,949.62,2207.62,2098.00
941,949.77,2209.34,1708.00
942,949.93,2211.06,1539.50
943,950.08,2212.77,1436.00
944,950.24,2214.49,1496.50
945,950.39,2216.20,1576.00
946,950.55,2217.92,1713.00
947,950.70,2219.63,1869.50
948,950.86,2221.34,2072.00
949,951.01,2223.05,2341.50
950,951.16,2224.76,2703.50
951,951.32,2226.47,3059.00
952,951.47,2228.18,3460.00
953,951.63,2229.89,3905.50
954,951.78,2231.59,4352.50
955,951.94,2233.30,4862.00
956,952.09,2235.00,5869.00
957,952.25,2236.71,7272.50
958,952.40,2238.41,9210.50
959,952.56,2240.12,12295.50
960,952.71,2241.82,16641.50
961,952.86,2243.52,23304.00
962,953.02,2245.22,32832.00
963,953.17,2246.92,51201.50
964,953.33,2248.62,63857.00
965,953.48,2250.32,64011.00
966,953.64,2252.01,64055.00
967,953.79,2253.71,64051.00
968,953.95,2255.40,64022.00
969,954.10,2257.10,63876.00
970,954.25,2258.79,45130.00
971,954.41,2260.49,28649.00
972,954.56,2262.18,19406.00
973,954.72,2263.87,14063.00
974,954.87,2265.56,10970.00
975,955.02,2267.25,8970.50
976,955.18,2268.94,7626.50
977,955.33,2270.63,6754.50
978,955.49,2272.32,6121.00
979,955.64,2274.00,5618.00
980,955.79,2275.69,5227.00
981,955.95,2277.37,4970.00
982,956.10,2279.06,4886.00
983,956.26,2280.74,4909.00
984,956.41,2282.42,5137.00
985,956.56,2284.11,5581.50
986,956.72,2285.79,6234.00
987,956.87,2287.47,7128.00
988,957.03,2289.15,8338.00
989,957.18,2290.82,9582.50
990,957.33,2292.50,10629.00
991,957.49,2294.18,10927.50
992,957.64,2295.86,10031.50
993,957.79,2297.53,8665.00
994,957.95,2299.21,6951.00
995,958.10,2300.88,5508.50
996,958.25,2302.55,4332.50
997,958.41,2304.22,3438.00
998,958.56,2305.90,2841.50
999,958.72,2307.57,2416.00
1000,958.87,2309.24,2049.50
1001,959.02,2310.91,1855.00
1002,959.18,2312.57,1631.00
1003,959.33,2314.24,1490.50
1004,959.48,2315.91,1385.50
1005,959.64,2317.57,1279.50
1006,959.79,2319.24,1124.50
1007,959.94,2320.90,1080.50
1008,960.10,2322.57,1048.50
1009,960.25,2324.23,992.50
1010,960.40,2325.89,969.00
1011,960.56,2327.55,917.00
1012,960.71,2329.21,921.50
1013,960.86,2330.87,850.00
1014,961.02,2332.53,794.00
1015,961.17,2334.19,775.00
1016,961.32,2335.84,742.00
1017,961.47,2337.50,729.00
1018,961.63,2339.16,724.50
1019,961.78,2340.81,649.00
1020,961.93,2342.46,644.50
1021,962.09,2344.12,603.50
1022,962.24,2345.77,606.00
1023,962.39,2347.42,592.50
1024,962.55,2349.07,548.50
1025,962.70,2350.72,512.00
1026,962.85,2352.37,539.00
1027,963.00,2354.02,505.50
1028,963.16,2355.67,460.50
1029,963.31,2357.31,426.50
1030,963.46,2358.96,439.50
1031,963.62,2360.60,423.50
1032,963.77,2362.25,406.50
1033,963.92,2363.89,451.00
1034,964.07,2365.53,396.50
1035,964.23,2367.18,374.00
1036,964.38,2368.82,385.50
1037,964.53,2370.46,400.00
1038,964.68,2372.10,376.00
1039,964.84,2373.74,338.00
1040,964.99,2375.37,372.00
1041,965.14,2377.01,347.00
1042,965.29,2378.65,345.50
1043,965.45,2380.28,351.00
1044,965.60,2381.92,362.50
1045,965.75,2383.55,379.50
1046,965.90,2385.18,351.00
1047,966.06,2386.82,375.50
1048,966.21,2388.45,364.00
1049,966.36,2390.08,374.50
1050,966.51,2391.71,386.00
1051,966.66,2393.34,354.00
1052,966.82,2394.97,377.00
1053,966.97,2396.59,375.50
1054,967.12,2398.22,394.50
1055,967.27,2399.85,410.00
1056,967.43,2401.47,406.50
1057,967.58,2403.10,441.00
1058,967.73,2404.72,462.00
1059,967.88,2406.34,458.00
1060,968.03,2407.96,485.50
1061,968.19,2409.58,473.00
1062,968.34,2411.20,462.00
1063,968.49,2412.82,481.00
1064,968.64,2414.44,470.00
1065,968.79,2416.06,441.00
1066,968.94,2417.68,429.50
1067,969.10,2419.30,462.50
1068,969.25,2420.91,429.50
1069,969.40,2422.53,423.50
1070,969.55,2424.14,395.00
1071,969.70,2425.75,388.00
1072,969.85,2427.37,387.50
1073,970.01,2428.98,398.50
1074,970.16,2430.59,379.00
1075,970.31,2432.20,369.00
1076,970.46,2433.81,328.00
1077,970.61,2435.42,333.50
1078,970.76,2437.02,337.50
1079,970.92,2438.63,327.50
1080,971.07,2440.24,336.50
1081,971.22,2441.84,325.50
1082,971.37,2443.45,332.50
1083,971.52,2445.05,334.00
1084,971.67,2446.65,309.50
1085,971.82,2448.26,327.00
1086,971.97,2449.86,301.50
1087,972.13,2451.46,299.00
1088,972.28,2453.06,302.00
1089,972.43,2454.66,259.00
1090,972.58,2456.25,285.50
1091,972.73,2457.85,272.50
1092,972.88,2459.45,265.50
1093,973.03,2461.04,286.50
1094,973.18,2462.64,244.00
1095,973.34,2464.23,287.00
1096,973.49,2465.83,243.50
1097,973.64,2467.42,248.00
1098,973.79,2469.01,297.00
1099,973.94,2470.60,274.00
1100,974.09,2472.19,268.50
1101,974.24,2473.78,278.50
1102,974.39,2475.37,282.00
1103,974.54,2476.96,282.00
1104,974.69,2478.55,290.00
1105,974.84,2480.13,285.00
1106,974.99,2481.72,278.50
1107,975.15,2483.30,280.50
1108,975.30,2484.89,271.50
1109,975.45,2486.47,267.50
1110,975.60,2488.05,248.50
1111,975.75,2489.64,241.00
1112,975.90,2491.22,270.00
1113,976.05,2492.80,233.50
1114,976.20,2494.38,213.50
1115,976.35,2495.96,219.50
1116,976.50,2497.53,227.50
1117,976.65,2499.11,221.50
1118,976.80,2500.69,210.50
1119,976.95,2502.26,209.50
1120,977.10,2503.84,199.00
1121,977.25,2505.41,184.00
1122,977.40,2506.98,174.50
1123,977.55,2508.56,164.00
1124,977.70,2510.13,188.50
1125,977.85,2511.70,146.00
1126,978.00,2513.27,161.00
1127,978.15,2514.84,163.50
1128,978.30,2516.41,140.50
1129,978.45,2517.97,138.50
1130,978.60,2519.54,129.00
1131,978.75,2521.11,153.00
1132,978.90,2522.67,114.00
1133,979.05,2524.24,153.50
1134,979.20,2525.80,149.00
1135,979.35,2527.36,125.00
1136,979.50,2528.93,119.50
1137,979.65,2530.49,112.50
1138,979.80,2532.05,136.50
1139,979.95,2533.61,108.00
1140,980.10,2535.17,134.00
1141,980.25,2536.72,117.00
1142,980.40,2538.28,117.00
1143,980.55,2539.84,89.50
1144,980.70,2541.40,120.00
1145,980.85,2542.95,120.50
1146,981.00,2544.50,62.00
1147,981.15,2546.06,86.00
1148,981.30,2547.61,104.00
1149,981.45,2549.16,98.50
1150,981.60,2550.71,117.00
1151,981.75,2552.27,96.00
1152,981.90,2553.81,77.00
1153,982.05,2555.36,98.50
1154,982.20,2556.91,119.50
1155,982.34,2558.46,118.00
1156,982.49,2560.01,82.00
1157,982.64,2561.55,91.50
1158,982.79,2563.10,75.00
1159,982.94,2564.64,68.00
1160,983.09,2566.18,78.50
1161,983.24,2567.73,85.00
1162,983.39,2569.27,96.50
1163,983.54,2570.81,60.50
1164,983.69,2572.35,72.00
1165,983.84,2573.89,74.00
1166,983.98,2575.43,88.50
1167,984.13,2576.97,78.50
1168,984.28,2578.50,67.50
1169,984.43,2580.04,73.50
1170,984.58,2581.58,96.00
1171,984.73,2583.11,79.50
1172,984.88,2584.65,66.00
1173,985.03,2586.18,74.50
1174,985.18,2587.71,76.50
1175,985.32,2589.24,58.50
1176,985.47,2590.78,56.00
1177,985.62,2592.31,70.50
1178,985.77,2593.84,77.50
1179,985.92,2595.36,93.50
1180,986.07,2596.89,95.00
1181,986.22,2598.42,55.00
1182,986.36,2599.95,63.00
1183,986.51,2601.47,54.50
1184,986.66,2603.00,79.00
1185,986.81,2604.52,102.50
1186,986.96,2606.04,56.50
1187,987.11,2607.57,68.50
1188,987.25,2609.09,48.50
1189,987.40,2610.61,65.00
1190,987.55,2612.13,95.50
1191,987.70,2613.65,76.50
1192,987.85,2615.17,87.00
1193,988.00,2616.69,75.50
1194,988.14,2618.20,61.50
1195,988.29,2619.72,81.00
1196,988.44,2621.24,94.00
1197,988.59,2622.75,81.50
1198,988.74,2624.26,93.50
1199,988.88,2625.78,82.00
1200,989.03,2627.29,75.50
1201,989.18,2628.80,91.00
1202,989.33,2630.31,124.00
1203,989.48,2631.82,78.50
1204,989.62,2633.33,78.00
1205,989.77,2634.84,99.00
1206,989.92,2636.35,66.50
1207,990.07,2637.86,98.00
1208,990.21,2639.36,61.00
1209,990.36,2640.87,84.50
1210,990.51,2642.37,62.50
1211,990.66,2643.88,68.50
1212,990.80,2645.38,59.00
1213,990.95,2646.88,93.00
1214,991.10,2648.39,76.50
1215,991.25,2649.89,67.50
1216,991.39,2651.39,49.50
1217,991.54,2652.89,98.50
1218,991.69,2654.39,57.50
1219,991.84,2655.88,65.00
1220,991.98,2657.38,53.00
1221,992.13,2658.88,55.00
1222,992.28,2660.37,70.50
1223,992.43,2661.87,94.00
1224,992.57,2663.36,68.00
1225,992.72,2664.86,67.00
1226,992.87,2666.35,96.00
1227,993.01,2667.84,71.50
1228,993.16,2669.33,75.50
1229,993.31,2670.82,70.50
1230,993.46,2672.31,73.50
1231,993.60,2673.80,40.00
1232,993.75,2675.29,100.00
1233,993.90,2676.78,82.50
1234,994.04,2678.26,67.50
1235,994.19,2679.75,65.50
1236,994.34,2681.23,80.50
1237,994.48,2682.72,60.50
1238,994.63,2684.20,91.00
1239,994.78,2685.69,82.00
1240,994.92,2687.17,84.00
1241,995.07,2688.65,108.00
1242,995.22,2690.13,109.50
1243,995.36,2691.61,86.00
1244,995.51,2693.09,105.00
1245,995.66,2694.57,121.50
1246,995.80,2696.04,129.00
1247,995.95,2697.52,125.00
1248,996.10,2699.00,126.00
1249,996.24,2700.47,159.50
1250,996.39,2701.95,171.00
1251,996.54,2703.42,175.00
1252,996.68,2704.89,184.50
1253,996.83,2706.36,200.50
1254,996.97,2707.84,207.00
1255,997.12,2709.31,253.00
1256,997.27,2710.78,257.50
1257,997.41,2712.25,300.50
1258,997.56,2713.71,327.50
1259,997.70,2715.18,387.00
1260,997.85,2716.65,449.50
1261,998.00,2718.11,477.50
1262,998.14,2719.58,546.50
1263,998.29,2721.04,629.50
1264,998.43,2722.51,756.50
1265,998.58,2723.97,939.00
1266,998.73,2725.43,1098.50
1267,998.87,2726.89,1294.00
1268,999.02,2728.36,1530.50
1269,999.16,2729.82,1802.50
1270,999.31,2731.27,2007.00
1271,999.45,2732.73,2145.50
1272,999.60,2734.19,2177.00
1273,999.75,2735.65,2132.00
1274,999.89,2737.10,2055.50
1275,1000.04,2738.56,1860.00
1276,1000.18,2740.01,1688.00
1277,1000.33,2741.47,1521.00
1278,1000.47,2742.92,1342.50
1279,1000.62,2744.37,1168.50
1280,1000.76,2745.83,1051.50
1281,1000.91,2747.28,968.50
1282,1001.05,2748.73,829.00
1283,1001.20,2750.18,798.00
1284,1001.35,2751.62,704.00
1285,1001.49,2753.07,678.00
1286,1001.64,2754.52,567.50
1287,1001.78,2755.97,563.00
1288,1001.93,2757.41,549.00
1289,1002.07,2758.86,479.50
1290,1002.22,2760.30,460.00
1291,1002.36,2761.74,421.00
1292,1002.51,2763.19,457.50
1293,1002.65,2764.63,384.00
1294,1002.80,2766.07,408.00
1295,1002.94,2767.51,380.50
1296,1003.09,2768.95,351.00
1297,1003.23,2770.39,387.00
1298,1003.38,2771.83,355.50
1299,1003.52,2773.27,317.00
1300,1003.66,2774.70,339.50
1301,1003.81,2776.14,320.00
1302,1003.95,2777.57,316.00
1303,1004.10,2779.01,332.50
1304,1004.24,2780.44,307.50
1305,1004.39,2781.87,319.00
1306,1004.53,2783.31,319.50
1307,1004.68,2784.74,312.00
1308,1004.82,2786.17,329.00
1309,1004.97,2787.60,312.00
1310,1005.11,2789.03,326.50
1311,1005.25,2790.46,337.50
1312,1005.40,2791.88,352.50
1313,1005.54,2793.31,325.50
1314,1005.69,2794.74,294.00
1315,1005.83,2796.16,321.00
1316,1005.98,2797.59,304.50
1317,1006.12,2799.01,372.50
1318,1006.26,2800.43,349.50
1319,1006.41,2801.86,368.50
1320,1006.55,2803.28,348.00
1321,1006.70,2804.70,352.50
1322,1006.84,2806.12,379.00
1323,1006.98,2807.54,347.00
1324,1007.13,2808.96,412.00
1325,1007.27,2810.38,390.00
1326,1007.42,2811.79,431.50
1327,1007.56,2813.21,422.00
1328,1007.70,2814.63,426.50
1329,1007.85,2816.04,452.50
1330,1007.99,2817.46,479.50
1331,1008.13,2818.87,488.50
1332,1008.28,2820.28,501.50
1333,1008.42,2821.69,535.00
1334,1008.56,2823.11,555.50
1335,1008.71,2824.52,611.00
1336,1008.85,2825.93,611.00
1337,1008.99,2827.33,691.50
1338,1009.14,2828.74,731.00
1339,1009.28,2830.15,791.00
1340,1009.42,2831.56,867.50
1341,1009.57,2832.96,953.00
1342,1009.71,2834.37,1046.00
1343,1009.85,2835.77,1145.50
1344,1010.00,2837.18,1227.00
1345,1010.14,2838.58,1331.00
1346,1010.28,2839.98,1413.50
1347,1010.43,2841.38,1472.00
1348,1010.57,2842.79,1522.00
1349,1010.71,2844.19,1536.50
1350,1010.86,2845.59,1556.00
1351,1011.00,2846.98,1582.00
1352,1011.14,2848.38,1537.50
1353,1011.29,2849.78,1570.00
1354,1011.43,2851.18,1517.50
1355,1011.57,2852.57,1502.00
1356,1011.71,2853.97,1491.50
1357,1011.86,2855.36,1506.00
1358,1012.00,2856.75,1517.00
1359,1012.14,2858.15,1544.00
1360,1012.28,2859.54,1566.50
1361,1012.43,2860.93,1580.50
1362,1012.57,2862.32,1641.50
1363,1012.71,2863.71,1622.50
1364,1012.85,2865.10,1703.50
1365,1013.00,2866.49,1800.50
1366,1013.14,2867.88,1828.00
1367,1013.28,2869.26,1942.50
1368,1013.42,2870.65,1965.50
1369,1013.57,2872.04,2053.50
1370,1013.71,2873.42,2106.50
1371,1013.85,2874.80,2196.50
1372,1013.99,2876.19,2250.00
1373,1014.14,2877.57,2289.50
1374,1014.28,2878.95,2325.50
1375,1014.42,2880.33,2368.00
1376,1014.56,2881.71,2396.00
1377,1014.70,2883.09,2420.00
1378,1014.85,2884.47,2442.50
1379,1014.99,2885.85,2427.50
1380,1015.13,2887.23,2444.50
1381,1015.27,2888.60,2434.50
1382,1015.41,2889.98,2431.00
1383,1015.55,2891.35,2413.00
1384,1015.70,2892.73,2393.00
1385,1015.84,2894.10,2420.00
1386,1015.98,2895.48,2435.50
1387,1016.12,2896.85,2450.00
1388,1016.26,2898.22,2435.50
1389,1016.40,2899.59,2493.00
1390,1016.55,2900.96,2502.50
1391,1016.69,2902.33,2582.00
1392,1016.83,2903.70,2602.50
1393,1016.97,2905.07,2723.50
1394,1017.11,2906.43,2766.00
1395,1017.25,2907.80,2859.00
1396,1017.40,2909.17,2938.50
1397,1017.54,2910.53,3046.00
1398,1017.68,2911.89,3246.00
1399,1017.82,2913.26,3404.00
1400,1017.96,2914.62,3566.50
1401,1018.10,2915.98,3796.00
1402,1018.24,2917.34,4030.50
1403,1018.38,2918.70,4237.50
1404,1018.52,2920.06,4580.50
1405,1018.67,2921.42,4911.50
1406,1018.81,2922.78,5344.50
1407,1018.95,2924.14,5808.50
1408,1019.09,2925.50,6372.50
1409,1019.23,2926.85,7052.50
1410,1019.37,2928.21,7865.00
1411,1019.51,2929.56,8754.50
1412,1019.65,2930.92,9985.50
1413,1019.79,2932.27,11495.00
1414,1019.93,2933.62,13483.50
1415,1020.07,2934.97,16110.50
1416,1020.21,2936.33,19784.00
1417,1020.35,2937.68,24623.50
1418,1020.50,2939.03,31034.50
1419,1020.64,2940.38,39070.50
1420,1020.78,2941.72,47579.00
1421,1020.92,2943.07,53705.00
1422,1021.06,2944.42,54528.50
1423,1021.20,2945.76,49777.00
1424,1021.34,2947.11,41303.00
1425,1021.48,2948.45,32413.00
1426,1021.62,2949.80,25402.50
1427,1021.76,2951.14,19973.00
1428,1021.90,2952.48,16229.00
1429,1022.04,2953.82,13430.00
1430,1022.18,2955.17,11428.00
1431,1022.32,2956.51,9969.50
1432,1022.46,2957.85,8857.50
1433,1022.60,2959.18,7831.50
1434,1022.74,2960.52,7034.50
1435,1022.88,2961.86,6475.00
1436,1023.02,2963.20,5943.50
1437,1023.16,2964.53,5526.00
1438,1023.30,2965.87,5142.00
1439,1023.44,2967.20,4928.50
1440,1023.58,2968.54,4586.00
1441,1023.72,2969.87,4361.50
1442,1023.86,2971.20,4217.50
1443,1024.00,2972.53,4023.50
1444,1024.14,2973.86,3931.50
1445,1024.28,2975.19,3836.00
1446,1024.42,2976.52,3743.50
1447,1024.55,2977.85,3713.00
1448,1024.69,2979.18,3692.50
1449,1024.83,2980.51,3659.00
1450,1024.97,2981.83,3671.50
1451,1025.11,2983.16,3695.00
1452,1025.25,2984.49,3684.50
1453,1025.39,2985.81,3770.00
1454,1025.53,2987.13,3831.50
1455,1025.67,2988.46,3900.00
1456,1025.81,2989.78,3961.50
1457,1025.95,2991.10,4100.50
1458,1026.09,2992.42,4176.00
1459,1026.23,2993.74,4359.00
1460,1026.36,2995.06,4405.00
1461,1026.50,2996.38,4507.00
1462,1026.64,2997.70,4578.00
1463,1026.78,2999.01,4686.00
1464,1026.92,3000.33,4757.00
1465,1027.06,3001.65,4790.50
1466,1027.20,3002.96,4854.50
1467,1027.34,3004.28,4742.50
1468,1027.47,3005.59,4657.00
1469,1027.61,3006.90,4625.00
1470,1027.75,3008.22,4519.50
1471,1027.89,3009.53,4375.50
1472,1028.03,3010.84,4226.50
1473,1028.17,3012.15,4043.00
1474,1028.31,3013.46,3892.00
1475,1028.44,3014.77,3746.50
1476,1028.58,3016.07,3612.50
1477,1028.72,3017.38,3412.50
1478,1028.86,3018.69,3327.50
1479,1029.00,3019.99,3136.00
1480,1029.14,3021.30,2975.50
1481,1029.27,3022.60,2874.00
1482,1029.41,3023.91,2725.50
1483,1029.55,3025.21,2577.00
1484,1029.69,3026.51,2505.00
1485,1029.83,3027.81,2396.00
1486,1029.96,3029.11,2305.00
1487,1030.10,3030.42,2210.50
1488,1030.24,3031.71,2140.50
1489,1030.38,3033.01,2063.50
1490,1030.52,3034.31,2015.50
1491,1030.65,3035.61,1934.50
1492,1030.79,3036.91,1864.50
1493,1030.93,3038.20,1764.00
1494,1031.07,3039.50,1758.00
1495,1031.20,3040.79,1688.00
1496,1031.34,3042.08,1650.50
1497,1031.48,3043.38,1609.50
1498,1031.62,3044.67,1559.00
1499,1031.75,3045.96,1521.50
1500,1031.89,3047.25,1472.00
1501,1032.03,3048.54,1427.00
1502,1032.17,3049.83,1361.50
1503,1032.30,3051.12,1343.00
1504,1032.44,3052.41,1346.00
1505,1032.58,3053.70,1268.00
1506,1032.72,3054.98,1258.50
1507,1032.85,3056.27,1224.50
1508,1032.99,3057.55,1200.50
1509,1033.13,3058.84,1200.50
1510,1033.26,3060.12,1165.50
1511,1033.40,3061.41,1140.50
1512,1033.54,3062.69,1150.50
1513,1033.68,3063.97,1109.00
1514,1033.81,3065.25,1094.00
1515,1033.95,3066.53,1101.50
1516,1034.09,3067.81,1057.50
1517,1034.22,3069.09,1034.00
1518,1034.36,3070.37,1017.50
1519,1034.50,3071.65,1057.50
1520,1034.63,3072.92,982.50
1521,1034.77,3074.20,955.00
1522,1034.91,3075.48,988.50
1523,1035.04,3076.75,929.00
1524,1035.18,3078.02,940.50
1525,1035.32,3079.30,919.50
1526,1035.45,3080.57,882.00
1527,1035.59,3081.84,874.00
1528,1035.72,3083.11,881.50
1529,1035.86,3084.38,854.50
1530,1036.00,3085.65,874.00
1531,1036.13,3086.92,840.00
1532,1036.27,3088.19,813.00
1533,1036.41,3089.46,825.00
1534,1036.54,3090.73,790.50
1535,1036.68,3091.99,757.00
1536,1036.81,3093.26,757.50
1537,1036.95,3094.52,773.00
1538,1037.09,3095.79,734.50
1539,1037.22,3097.05,734.50
1540,1037.36,3098.31,709.50
1541,1037.49,3099.58,679.00
1542,1037.63,3100.84,696.50
1543,1037.77,3102.10,664.50
1544,1037.90,3103.36,660.50
1545,1038.04,3104.62,640.50
1546,1038.17,3105.88,668.00
1547,1038.31,3107.13,640.50
1548,1038.44,3108.39,609.00
1549,1038.58,3109.65,601.00
1550,1038.71,3110.90,580.00
1551,1038.85,3112.16,594.00
1552,1038.99,3113.41,560.50
1553,1039.12,3114.67,557.50
1554,1039.26,3115.92,558.00
1555,1039.39,3117.17,537.50
1556,1039.53,3118.42,516.50
1557,1039.66,3119.67,544.50
1558,1039.80,3120.93,499.00
1559,1039.93,3122.17,534.00
1560,1040.07,3123.42,479.00
1561,1040.20,3124.67,490.50
1562,1040.34,3125.92,480.50
1563,1040.47,3127.17,427.50
1564,1040.61,3128.41,463.50
1565,1040.74,3129.66,420.00
1566,1040.88,3130.90,423.00
1567,1041.01,3132.15,427.50
1568,1041.15,3133.39,386.50
1569,1041.28,3134.63,429.50
1570,1041.42,3135.87,370.50
1571,1041.55,3137.12,361.50
1572,1041.68,3138.36,377.00
1573,1041.82,3139.60,380.00
1574,1041.95,3140.84,353.50
1575,1042.09,3142.07,355.00
1576,1042.22,3143.31,356.50
1577,1042.36,3144.55,334.00
1578,1042.49,3145.79,335.00
1579,1042.63,3147.02,335.00
1580,1042.76,3148.26,306.00
1581,1042.89,3149.49,325.50
1582,1043.03,3150.72,292.50
1583,1043.16,3151.96,287.50
1584,1043.30,3153.19,330.50
1585,1043.43,3154.42,279.50
1586,1043.57,3155.65,298.50
1587,1043.70,3156.88,250.50
1588,1043.83,3158.11,327.00
1589,1043.97,3159.34,266.00
1590,1044.10,3160.57,283.00
1591,1044.23,3161.80,284.00
1592,1044.37,3163.02,269.00
1593,1044.50,3164.25,262.00
1594,1044.64,3165.48,260.50
1595,1044.77,3166.70,306.50
1596,1044.90,3167.92,238.50
1597,1045.04,3169.15,275.50
1598,1045.17,3170.37,246.00
1599,1045.30,3171.59,229.00
1600,1045.44,3172.81,237.00
1601,1045.57,3174.03,221.50
1602,1045.70,3175.25,233.00
1603,1045.84,3176.47,198.00
1604,1045.97,3177.69,175.00
1605,1046.10,3178.91,197.00
1606,1046.24,3180.13,168.00
1607,1046.37,3181.34,195.00
1608,1046.50,3182.56,184.50
1609,1046.64,3183.77,166.00
1610,1046.77,3184.99,172.00
1611,1046.90,3186.20,155.00
1612,1047.04,3187.42,185.50
1613,1047.17,3188.63,166.00
1614,1047.30,3189.84,148.00
1615,1047.43,3191.05,167.50
1616,1047.57,3192.26,131.50
1617,1047.70,3193.47,168.50
1618,1047.83,3194.68,182.00
1619,1047.97,3195.89,145.00
1620,1048.10,3197.10,122.50
1621,1048.23,3198.30,123.50
1622,1048.36,3199.51,161.50
1623,1048.50,3200.72,144.00
1624,1048.63,3201.92,158.00
1625,1048.76,3203.12,142.50
1626,1048.89,3204.33,144.00
1627,1049.03,3205.53,125.50
1628,1049.16,3206.73,115.50
1629,1049.29,3207.93,100.50
1630,1049.42,3209.14,140.00
1631,1049.55,3210.34,91.50
1632,1049.69,3211.54,123.50
1633,1049.82,3212.73,115.00
1634,1049.95,3213.93,106.50
1635,1050.08,3215.13,101.00
1636,1050.21,3216.33,66.50
1637,1050.35,3217.52,135.00
1638,1050.48,3218.72,95.50
1639,1050.61,3219.91,93.00
1640,1050.74,3221.11,81.00
1641,1050.87,3222.30,93.50
1642,1051.01,3223.49,94.00
1643,1051.14,3224.69,83.00
1644,1051.27,3225.88,72.00
1645,1051.40,3227.07,94.00
1646,1051.53,3228.26,85.50
1647,1051.66,3229.45,79.00
1648,1051.80,3230.64,68.50
1649,1051.93,3231.82,72.50
1650,1052.06,3233.01,89.50
1651,1052.19,3234.20,51.50
1652,1052.32,3235.38,55.50
1653,1052.45,3236.57,56.00
1654,1052.58,3237.75,87.50
1655,1052.71,3238.94,21.00
1656,1052.85,3240.12,73.50
1657,1052.98,3241.30,50.00
1658,1053.11,3242.49,48.50
1659,1053.24,3243.67,23.00
1660,1053.37,3244.85,58.50
1661,1053.50,3246.03,71.50
1662,1053.63,3247.21,54.00
1663,1053.76,3248.39,42.00
1664,1053.89,3249.56,34.00
1665,1054.02,3250.74,36.50
1666,1054.16,3251.92,69.50
1667,1054.29,3253.09,69.00
1668,1054.42,3254.27,22.50
1669,1054.55,3255.44,46.50
1670,1054.68,3256.62,31.50
1671,1054.81,3257.79,64.00
1672,1054.94,3258.96,37.50
1673,1055.07,3260.13,60.50
1674,1055.20,3261.31,27.50
1675,1055.33,3262.48,59.00
1676,1055.46,3263.65,27.50
1677,1055.59,3264.82,37.50
1678,1055.72,3265.98,26.50
1679,1055.85,3267.15,33.00
1680,1055.98,3268.32,55.00
1681,1056.11,3269.49,24.50
1682,1056.24,3270.65,28.00
1683,1056.37,3271.82,9.50
1684,1056.50,3272.98,29.50
1685,1056.63,3274.15,27.00
1686,1056.76,3275.31,28.50
1687,1056.89,3276.47,18.00
1688,1057.02,3277.63,50.50
1689,1057.15,3278.79,9.00
1690,1057.28,3279.96,51.00
1691,1057.41,3281.12,22.50
1692,1057.54,3282.27,42.50
1693,1057.67,3283.43,63.00
1694,1057.80,3284.59,3.00
1695,1057.93,3285.75,36.50
1696,1058.06,3286.91,41.50
1697,1058.19,3288.06,48.00
1698,1058.32,3289.22,22.50
1699,1058.45,3290.37,31.00
1700,1058.57,3291.52,30.50
1701,1058.70,3292.68,17.00
1702,1058.83,3293.83,12.50
1703,1058.96,3294.98,17.00
1704,1059.09,3296.13,29.50
1705,1059.22,3297.28,45.50
1706,1059.35,3298.43,-7.50
1707,1059.48,3299.58,31.00
1708,1059.61,3300.73,52.50
1709,1059.74,3301.88,12.50
1710,1059.87,3303.03,35.00
1711,1059.99,3304.17,37.00
1712,1060.12,3305.32,11.00
1713,1060.25,3306.47,46.50
1714,1060.38,3307.61,-0.50
1715,1060.51,3308.75,31.50
1716,1060.64,3309.90,31.00
1717,1060.77,3311.04,25.00
1718,1060.89,3312.18,15.50
1719,1061.02,3313.32,-10.50
1720,1061.15,3314.47,11.00
1721,1061.28,3315.61,-16.50
1722,1061.41,3316.74,6.50
1723,1061.54,3317.88,6.00
1724,1061.67,3319.02,42.00
1725,1061.79,3320.16,3.00
1726,1061.92,3321.30,14.00
1727,1062.05,3322.43,43.50
1728,1062.18,3323.57,-16.00
1729,1062.31,3324.70,17.50
1730,1062.43,3325.84,32.50
1731,1062.56,3326.97,10.50
1732,1062.69,3328.10,13.50
1733,1062.82,3329.23,14.50
1734,1062.95,3330.37,24.50
1735,1063.07,3331.50,10.50
1736,1063.20,3332.63,21.50
1737,1063.33,3333.76,-1.50
1738,1063.46,3334.89,35.50
1739,1063.58,3336.01,12.00
1740,1063.71,3337.14,18.50
1741,1063.84,3338.27,19.00
1742,1063.97,3339.40,42.50
1743,1064.09,3340.52,37.00
1744,1064.22,3341.65,7.50
1745,1064.35,3342.77,8.00
1746,1064.48,3343.89,18.50
1747,1064.60,3345.02,21.50
1748,1064.73,3346.14,10.00
1749,1064.86,3347.26,7.00
1750,1064.98,3348.38,33.00
1751,1065.11,3349.50,32.50
1752,1065.24,3350.62,17.00
1753,1065.37,3351.74,-7.00
1754,1065.49,3352.86,40.00
1755,1065.62,3353.98,-11.00
1756,1065.75,3355.10,23.00
1757,1065.87,3356.21,22.50
1758,1066.00,3357.33,10.50
1759,1066.13,3358.44,28.00
1760,1066.25,3359.56,31.50
1761,1066.38,3360.67,4.00
1762,1066.51,3361.79,9.50
1763,1066.63,3362.90,9.00
1764,1066.76,3364.01,23.00
1765,1066.89,3365.12,-1.00
1766,1067.01,3366.23,-10.00
1767,1067.14,3367.34,32.50
1768,1067.27,3368.45,52.50
1769,1067.39,3369.56,18.00
1770,1067.52,3370.67,19.00
1771,1067.64,3371.78,-3.00
1772,1067.77,3372.88,45.50
1773,1067.90,3373.99,9.00
1774,1068.02,3375.09,10.00
1775,1068.15,3376.20,10.50
1776,1068.28,3377.30,31.50
1777,1068.40,3378.41,15.00
1778,1068.53,3379.51,12.00
1779,1068.65,3380.61,-1.00
1780,1068.78,3381.71,18.00
1781,1068.90,3382.82,14.00
1782,1069.03,3383.92,24.50
1783,1069.16,3385.02,28.50
1784,1069.28,3386.11,35.00
1785,1069.41,3387.21,35.50
1786,1069.53,3388.31,-7.00
1787,1069.66,3389.41,-5.50
1788,1069.78,3390.50,13.00
1789,1069.91,3391.60,8.00
1790,1070.03,3392.70,-7.00
1791,1070.16,3393.79,61.50
1792,1070.29,3394.88,12.00
1793,1070.41,3395.98,31.00
1794,1070.54,3397.07,37.50
1795,1070.66,3398.16,30.00
1796,1070.79,3399.25,-15.50
1797,1070.91,3400.34,16.50
1798,1071.04,3401.43,25.00
1799,1071.16,3402.52,6.50
1800,1071.29,3403.61,11.50
1801,1071.41,3404.70,5.00
1802,1071.54,3405.79,15.50
1803,1071.66,3406.88,21.50
1804,1071.79,3407.96,-5.00
1805,1071.91,3409.05,5.00
1806,1072.03,3410.13,14.00
1807,1072.16,3411.22,4.50
1808,1072.28,3412.30,1.00
1809,1072.41,3413.38,37.00
1810,1072.53,3414.47,16.50
1811,1072.66,3415.55,15.00
1812,1072.78,3416.63,6.00
1813,1072.91,3417.71,13.00
1814,1073.03,3418.79,17.00
1815,1073.15,3419.87,27.00
1816,1073.28,3420.95,7.50
1817,1073.40,3422.03,-2.00
1818,1073.53,3423.10,4.00
1819,1073.65,3424.18,43.00
1820,1073.78,3425.26,16.00
1821,1073.90,3426.33,8.50
1822,1074.02,3427.41,5.00
1823,1074.15,3428.48,-5.50
1824,1074.27,3429.55,16.50
1825,1074.40,3430.63,30.50
1826,1074.52,3431.70,17.00
1827,1074.64,3432.77,7.50
1828,1074.77,3433.84,6.50
1829,1074.89,3434.91,0.00
1830,1075.01,3435.98,-18.50
1831,1075.14,3437.05,32.00
1832,1075.26,3438.12,-1.00
1833,1075.38,3439.19,16.00
1834,1075.51,3440.25,24.00
1835,1075.63,3441.32,4.00
1836,1075.75,3442.39,4.00
1837,1075.88,3443.45,19.50
1838,1076.00,3444.52,5.00
1839,1076.12,3445.58,-0.50
1840,1076.25,3446.64,-4.50
1841,1076.37,3447.71,14.50
1842,1076.49,3448.77,8.50
1843,1076.62,3449.83,5.00
1844,1076.74,3450.89,33.50
1845,1076.86,3451.95,-8.00
1846,1076.99,3453.01,15.50
1847,1077.11,3454.07,24.00
1848,1077.23,3455.13,-0.50
1849,1077.35,3456.19,4.50
1850,1077.48,3457.24,3.00
1851,1077.60,3458.30,18.50
1852,1077.72,3459.36,-34.00
1853,1077.84,3460.41,-11.00
1854,1077.97,3461.47,15.00
1855,1078.09,3462.52,27.50
1856,1078.21,3463.57,10.50
1857,1078.33,3464.63,-15.00
1858,1078.46,3465.68,24.50
1859,1078.58,3466.73,20.50
1860,1078.70,3467.78,-14.50
1861,1078.82,3468.83,17.00
1862,1078.95,3469.88,-75.50
1863,1079.07,3470.93,-9.00
1864,1079.19,3471.98,24.50
1865,1079.31,3473.03,9.00
1866,1079.43,3474.07,0.50
1867,1079.56,3475.12,16.00
1868,1079.68,3476.17,-16.00
1869,1079.80,3477.21,-2.50
1870,1079.92,3478.26,17.50
1871,1080.04,3479.30,33.00
1872,1080.16,3480.34,5.50
1873,1080.29,3481.39,-9.50
1874,1080.41,3482.43,13.00
1875,1080.53,3483.47,23.00
1876,1080.65,3484.51,1.00
1877,1080.77,3485.55,-5.50
1878,1080.89,3486.59,11.00
1879,1081.02,3487.63,13.00
1880,1081.14,3488.67,25.50
1881,1081.26,3489.71,-6.50
1882,1081.38,3490.74,-12.50
1883,1081.50,3491.78,-6.00
1884,1081.62,3492.82,7.50
1885,1081.74,3493.85,1.50
1886,1081.86,3494.89,-9.50
1887,1081.99,3495.92,-9.50
1888,1082.11,3496.95,8.50
1889,1082.23,3497.99,-11.00
1890,1082.35,3499.02,11.50
1891,1082.47,3500.05,13.50
1892,1082.59,3501.08,35.00
1893,1082.71,3502.11,-6.50
1894,1082.83,3503.14,14.50
1895,1082.95,3504.17,19.50
1896,1083.07,3505.20,13.50
1897,1083.19,3506.23,-6.00
1898,1083.31,3507.25,-5.00
1899,1083.43,3508.28,-22.50
1900,1083.55,3509.31,-11.00
1901,1083.68,3510.33,6.50
1902,1083.80,3511.36,23.00
1903,1083.92,3512.38,4.50
1904,1084.04,3513.40,4.00
1905,1084.16,3514.43,-6.50
1906,1084.28,3515.45,10.50
1907,1084.40,3516.47,-12.00
1908,1084.52,3517.49,20.50
1909,1084.64,3518.51,9.00
1910,1084.76,3519.53,28.50
1911,1084.88,3520.55,0.50
1912,1085.00,3521.57,-24.00
1913,1085.12,3522.59,24.00
1914,1085.24,3523.61,28.00
1915,1085.36,3524.62,1.00
1916,1085.48,3525.64,6.00
1917,1085.60,3526.65,19.50
1918,1085.72,3527.67,-21.00
1919,1085.83,3528.68,-10.00
1920,1085.95,3529.70,15.00
1921,1086.07,3530.71,3.50
1922,1086.19,3531.72,-34.50
1923,1086.31,3532.73,12.50
1924,1086.43,3533.75,13.00
1925,1086.55,3534.76,-1.50
1926,1086.67,3535.77,-17.00
1927,1086.79,3536.78,-8.50
1928,1086.91,3537.78,-22.50
1929,1087.03,3538.79,18.50
1930,1087.15,3539.80,-4.50
1931,1087.27,3540.81,-16.00
1932,1087.39,3541.81,16.50
1933,1087.50,3542.82,-11.50
1934,1087.62,3543.82,-20.50
1935,1087.74,3544.83,-0.50
1936,1087.86,3545.83,23.50
1937,1087.98,3546.84,-9.50
1938,1088.10,3547.84,9.00
1939,1088.22,3548.84,-20.50
1940,1088.34,3549.84,12.00
1941,1088.45,3550.84,15.00
1942,1088.57,3551.84,20.50
1943,1088.69,3552.84,15.00
1944,1088.81,3553.84,14.00
1945,1088.93,3554.84,34.00
1946,1089.05,3555.84,-0.50
1947,1089.16,3556.84,11.00
1948,1089.28,3557.83,-12.00
1949,1089.40,3558.83,31.00
1950,1089.52,3559.83,-18.00
1951,1089.64,3560.82,-22.50
1952,1089.76,3561.81,16.50
1953,1089.87,3562.81,-25.50
1954,1089.99,3563.80,16.50
1955,1090.11,3564.79,-0.50
1956,1090.23,3565.79,2.00
1957,1090.34,3566.78,15.50
1958,1090.46,3567.77,-10.50
1959,1090.58,3568.76,10.00
1960,1090.70,3569.75,9.50
1961,1090.82,3570.74,5.00
1962,1090.93,3571.72,-10.00
1963,1091.05,3572.71,13.50
1964,1091.17,3573.70,14.00
1965,1091.29,3574.68,9.50
1966,1091.40,3575.67,4.00
1967,1091.52,3576.66,-5.50
1968,1091.64,3577.64,-1.00
1969,1091.76,3578.62,26.50
1970,1091.87,3579.61,6.00
1971,1091.99,3580.59,31.50
1972,1092.11,3581.57,5.00
1973,1092.22,3582.55,6.50
1974,1092.34,3583.54,-21.00
1975,1092.46,3584.52,-1.50
1976,1092.57,3585.50,-25.50
1977,1092.69,3586.48,3.50
1978,1092.81,3587.45,-11.50
1979,1092.93,3588.43,20.50
1980,1093.04,3589.41,-7.00
1981,1093.16,3590.39,13.00
1982,1093.28,3591.36,-1.50
1983,1093.39,3592.34,4.50
1984,1093.51,3593.31,28.00
1985,1093.63,3594.29,-8.50
1986,1093.74,3595.26,14.50
1987,1093.86,3596.23,2.50
1988,1093.97,3597.21,3.00
1989,1094.09,3598.18,4.00
1990,1094.21,3599.15,3.00
1991,1094.32,3600.12,2.00
1992,1094.44,3601.09,12.50
1993,1094.56,3602.06,12.50
1994,1094.67,3603.03,-23.50
1995,1094.79,3604.00,-3.50
1996,1094.90,3604.97,-5.50
1997,1095.02,3605.93,7.00
1998,1095.14,3606.90,-5.00
1999,1095.25,3607.87,-10.00
2000,1095.37,3608.83,-11.00
2001,1095.48,3609.80,13.00
2002,1095.60,3610.76,10.00
2003,1095.71,3611.72,-2.50
2004,1095.83,3612.69,0.50
2005,1095.95,3613.65,7.50
2006,1096.06,3614.61,17.00
2007,1096.18,3615.57,-17.50
2008,1096.29,3616.53,18.50
2009,1096.41,3617.49,28.50
2010,1096.52,3618.45,-7.00
2011,1096.64,3619.41,11.50
2012,1096.75,3620.37,3.00
2013,1096.87,3621.33,-1.00
2014,1096.98,3622.29,-2.50
2015,1097.10,3623.24,8.50
2016,1097.21,3624.20,28.50
2017,1097.33,3625.15,-7.50
2018,1097.44,3626.11,23.00
2019,1097.56,3627.06,21.00
2020,1097.67,3628.02,-18.50
2021,1097.79,3628.97,57.00
2022,1097.90,3629.92,4.00
2023,1098.02,3630.88,-31.00
2024,1098.13,3631.83,10.00
2025,1098.25,3632.78,6.50
2026,1098.36,3633.73,-8.00
2027,1098.48,3634.68,16.50
2028,1098.59,3635.63,24.50
2029,1098.71,3636.57,23.50
2030,1098.82,3637.52,41.50
2031,1098.94,3638.47,4.00
2032,1099.05,3639.42,13.50
2033,1099.16,3640.36,-7.00
2034,1099.28,3641.31,22.50
2035,1099.39,3642.25,4.50
2036,1099.51,3643.20,-23.00
2037,1099.62,3644.14,-8.50
2038,1099.73,3645.08,16.00
2039,1099.85,3646.03,16.00
2040,1099.96,3646.97,16.50
2041,1100.08,3647.91,-7.50
2042,1100.19,3648.85,19.50
2043,1100.30,3649.79,-5.50
2044,1100.42,3650.73,-13.00
2045,1100.53,3651.67,4.00
2046,1100.65,3652.61,-1.00
2047,1100.76,3653.54,0.50
